%AERI measurement at Southern Great Plains site
%07/22/2001, GMT = 0522
%Wavenumber (cm^-1)  Radiance (mW/m^2/sr/cm^-1)
520.237	161.958
520.719	155.101
521.201	158.653
521.683	157.224
522.165	161.343
522.648	156.909
523.13	156.224
523.612	157.269
524.094	155.419
524.576	152.992
525.058	157.244
525.54	154.539
526.023	155.276
526.505	159.191
526.987	157.826
527.469	157.167
527.951	159.504
528.433	158.399
528.916	157.565
529.398	155.97
529.88	156.66
530.362	158.313
530.844	155.931
531.326	155.104
531.808	153.249
532.291	157.47
532.773	156.1
533.255	154.985
533.737	158.072
534.219	156.962
534.701	159.621
535.183	157.263
535.666	157.541
536.148	157.729
536.63	157.652
537.112	157.742
537.594	158.77
538.076	157.015
538.558	154.493
539.041	158.031
539.523	158.433
540.005	156.631
540.487	158.179
540.969	158.296
541.451	158.518
541.933	155.678
542.416	157.942
542.898	157.159
543.38	157.248
543.862	158.805
544.344	159.693
544.826	159.34
545.308	158.015
545.791	157.765
546.273	157.824
546.755	159.989
547.237	156.148
547.719	158.848
548.201	158.38
548.684	158.765
549.166	160.235
549.648	158.141
550.13	159.758
550.612	158.341
551.094	159.911
551.576	157.044
552.059	158.719
552.541	158.649
553.023	157.242
553.505	161.439
553.987	157.892
554.469	158.572
554.951	159.371
555.434	154.974
555.916	160.523
556.398	155.986
556.88	159.16
557.362	158.621
557.844	159.521
558.326	157.493
558.809	154.86
559.291	158.328
559.773	158.195
560.255	157.135
560.737	157.533
561.219	156.437
561.702	155.542
562.184	157.804
562.666	158.477
563.148	158.921
563.63	160.812
564.112	158.727
564.594	159.025
565.077	157.629
565.559	159.047
566.041	158.6
566.523	160.257
567.005	159.871
567.487	160.709
567.969	158.638
568.452	159.918
568.934	158.803
569.416	159.755
569.898	159.532
570.38	159.387
570.862	158.75
571.344	159.448
571.827	158.863
572.309	158.729
572.791	158.611
573.273	159.368
573.755	157.852
574.237	159.635
574.719	160.292
575.202	159.494
575.684	158.719
576.166	159.788
576.648	160.214
577.13	159.54
577.612	159.929
578.094	159.421
578.577	159.264
579.059	160.083
579.541	158.307
580.023	162.197
580.505	158.059
580.987	159.579
581.47	160.231
581.952	159.581
582.434	160.637
582.916	157.948
583.398	159.426
583.88	159.707
584.362	159.763
584.845	159.532
585.327	158.72
585.809	159.599
586.291	157.859
586.773	159.14
587.255	158.104
587.737	158.592
588.22	158.593
588.702	159.1
589.184	158.784
589.666	159.419
590.148	159.574
590.63	160.87
591.112	160.083
591.595	158.668
592.077	159.21
592.559	160.095
593.041	159.506
593.523	159.36
594.005	158.887
594.488	159.829
594.97	159.006
595.452	160.174
595.934	158.838
596.416	158.617
596.898	160.254
597.38	159.047
597.863	158.672
598.345	159.535
598.827	159.018
599.309	159.558
599.791	159.61
600.273	159.53
600.755	159.808
601.238	159.723
601.72	158.823
602.202	157.475
602.684	157.794
603.166	159.799
603.648	157.893
604.13	159.827
604.613	160.267
605.095	158.245
605.577	157.678
606.059	158.695
606.541	158.059
607.023	155.927
607.505	158.128
607.988	159.583
608.47	157.349
608.952	158.12
609.434	158.354
609.916	158.416
610.398	157.321
610.88	159.068
611.363	157.456
611.845	157.104
612.327	158.705
612.809	160.243
613.291	159.816
613.773	158.149
614.256	159.785
614.738	159.44
615.22	159.594
615.702	159.202
616.184	160.339
616.666	160.349
617.148	159.922
617.631	160.16
618.113	159.698
618.595	157.816
619.077	157.996
619.559	158.628
620.041	158.765
620.523	159.7
621.006	159.451
621.488	158.074
621.97	157.294
622.452	159.463
622.934	157.463
623.416	158.281
623.898	159.136
624.381	159.513
624.863	159.721
625.345	159.998
625.827	159.43
626.309	159.239
626.791	159.771
627.274	159.198
627.756	159.104
628.238	159.61
628.72	158.782
629.202	159.722
629.684	158.97
630.166	158.871
630.649	158.955
631.131	159.301
631.613	158.643
632.095	159.172
632.577	159.592
633.059	159.623
633.541	159.434
634.024	159.33
634.506	158.845
634.988	159.142
635.47	158.453
635.952	159.47
636.434	159.267
636.917	159.176
637.399	158.769
637.881	158.67
638.363	159.223
638.845	159.35
639.327	158.872
639.809	158.899
640.292	158.67
640.774	159.105
641.256	158.585
641.738	159.262
642.22	158.705
642.702	159.625
643.184	158.66
643.667	158.823
644.149	158.814
644.631	159.034
645.113	158.404
645.595	158.816
646.077	158.691
646.559	158.791
647.042	158.311
647.524	158.672
648.006	158.272
648.488	158.783
648.97	158.164
649.452	158.763
649.934	158.572
650.417	158.509
650.899	158.877
651.381	158.679
651.863	158.21
652.345	158.315
652.827	158.139
653.309	158.586
653.792	158.415
654.274	158.809
654.756	157.749
655.238	158.103
655.72	158.394
656.202	158.007
656.685	157.739
657.167	158.386
657.649	158.011
658.131	157.671
658.613	158.066
659.095	157.822
659.577	157.158
660.06	157.991
660.542	157.763
661.024	158.243
661.506	157.369
661.988	158.171
662.47	157.375
662.952	157.524
663.435	157.775
663.917	157.898
664.399	157.602
664.881	157.831
665.363	157.551
665.845	157.925
666.327	157.339
666.81	157.633
667.292	156.365
667.774	154.631
668.256	154.464
668.738	155.964
669.22	156.444
669.703	157.088
670.185	157.12
670.667	157.43
671.149	157.261
671.631	157.28
672.113	157.056
672.595	156.976
673.078	156.589
673.56	157.299
674.042	156.662
674.524	157.137
675.006	156.785
675.488	157.116
675.97	156.312
676.453	156.522
676.935	156.9
677.417	156.422
677.899	156.839
678.381	157.089
678.863	156.119
679.345	156.189
679.828	156.14
680.31	156.495
680.792	155.694
681.274	156.564
681.756	156.14
682.238	156.046
682.72	156.197
683.203	156.342
683.685	155.943
684.167	155.909
684.649	156.165
685.131	155.73
685.613	155.749
686.095	156.307
686.578	155.785
687.06	155.723
687.542	155.798
688.024	155.743
688.506	155.83
688.988	155.037
689.471	155.77
689.953	156.12
690.435	154.936
690.917	156.013
691.399	155.502
691.881	155.333
692.363	155.298
692.846	155.605
693.328	155.15
693.81	155.448
694.292	155.364
694.774	155.272
695.256	155.341
695.738	155.451
696.221	155.048
696.703	155.067
697.185	154.967
697.667	155.002
698.149	154.559
698.631	154.834
699.113	154.433
699.596	154.48
700.078	154.717
700.56	154.809
701.042	154.002
701.524	154.753
702.006	154.207
702.489	154.487
702.971	153.89
703.453	154.692
703.935	154.418
704.417	153.95
704.899	154.022
705.381	154.528
705.864	154.121
706.346	153.9
706.828	153.653
707.31	154.117
707.792	153.686
708.274	153.499
708.756	152.675
709.239	152.647
709.721	152.224
710.203	153.109
710.685	151.456
711.167	152.025
711.649	152.138
712.131	151.903
712.614	149.262
713.096	152.803
713.578	153.762
714.06	151.464
714.542	149.43
715.024	152.631
715.506	147.909
715.989	143.003
716.471	151.23
716.953	150.25
717.435	145.3
717.917	150.107
718.399	152.556
718.881	152.372
719.364	152.804
719.846	152.839
720.328	152.856
720.81	152.185
721.292	151.363
721.774	145.58
722.257	143.247
722.739	139.087
723.221	134.525
723.703	144.487
724.185	141.54
724.667	130.639
725.149	143.813
725.632	145.356
726.114	130.832
726.596	140.271
727.078	149.612
727.56	133.992
728.042	138.08
728.524	149.974
729.007	150.439
729.489	150.401
729.971	148.735
730.453	151.327
730.935	150.023
731.417	150.29
731.899	146.492
732.382	135.346
732.864	142.547
733.346	148.878
733.828	133.117
734.31	139.116
734.792	149.419
735.275	136.294
735.757	134.969
736.239	149.406
736.721	137.308
737.203	134.149
737.685	147.378
738.167	141.046
738.65	132.797
739.132	147.437
739.614	143.946
740.096	145.32
740.578	150.87
741.06	148.928
741.542	148.728
742.025	147.05
742.507	149.743
742.989	136.121
743.471	139.64
743.953	149.885
744.435	148.19
744.917	149.782
745.4	146.219
745.882	126.048
746.364	124.75
746.846	145.976
747.328	124.063
747.81	131.106
748.292	150.181
748.775	136.992
749.257	119.217
749.739	141.299
750.221	125.425
750.703	112.024
751.185	139.892
751.667	131.333
752.15	136.674
752.632	146.004
753.114	127.284
753.596	135.004
754.078	146.492
754.56	149.324
755.043	134.916
755.525	127.177
756.007	143.583
756.489	108.802
756.971	120.094
757.453	130.127
757.935	99.3788
758.418	106.921
758.9	123.099
759.382	100.296
759.864	99.6899
760.346	129.565
760.828	107.63
761.31	103.779
761.793	123.603
762.275	98.226
762.757	95.0988
763.239	112.578
763.721	100.629
764.203	91.6258
764.685	110.388
765.168	102.474
765.65	90.0848
766.132	107.71
766.614	98.2057
767.096	110.908
767.578	117.292
768.061	96.9115
768.543	111.809
769.025	134.861
769.507	110.158
769.989	136.411
770.471	116.135
770.953	97.3043
771.436	99.1216
771.918	92.233
772.4	97.2065
772.882	94.1345
773.364	93.9992
773.846	93.8637
774.328	102.072
774.811	99.8072
775.293	134.873
775.775	137.318
776.257	114.326
776.739	139.205
777.221	140.028
777.703	105.969
778.186	100.576
778.668	99.8295
779.15	135.014
779.632	118.152
780.114	91.2197
780.596	94.6542
781.078	87.9428
781.561	90.9321
782.043	91.4005
782.525	92.366
783.007	95.1274
783.489	106.566
783.971	129.257
784.453	146.606
784.936	129.836
785.418	105.571
785.9	93.5067
786.382	90.1244
786.864	88.5019
787.346	87.9401
787.829	88.4499
788.311	86.5152
788.793	85.0068
789.275	84.4316
789.757	86.021
790.239	84.8209
790.721	84.2498
791.204	92.1478
791.686	125.421
792.168	111.806
792.65	96.5193
793.132	98.037
793.614	126.931
794.096	137.312
794.579	104.117
795.061	109.963
795.543	133.387
796.025	144.065
796.507	120.981
796.989	111.131
797.471	130.391
797.954	131.568
798.436	138.875
798.918	144.385
799.4	116.619
799.882	98.1733
800.364	90.8679
800.847	86.3846
801.329	87.3287
801.811	90.2779
802.293	87.8999
802.775	120.99
803.257	141.126
803.739	129.592
804.222	92.7538
804.704	89.3002
805.186	78.9806
805.668	89.8126
806.15	101.622
806.632	90.2595
807.114	84.6568
807.597	86.1652
808.079	136.026
808.561	109.284
809.043	80.2338
809.525	83.0743
810.007	74.2815
810.49	78.7099
810.972	77.2626
811.454	77.5997
811.936	74.0763
812.418	81.4387
812.9	75.9953
813.382	93.0708
813.865	122.965
814.347	130.167
814.829	109.039
815.311	80.3342
815.793	80.5524
816.275	76.4918
816.757	79.0723
817.24	72.5799
817.722	74.4602
818.204	71.2335
818.686	75.122
819.168	71.3084
819.65	72.1897
820.132	72.1039
820.615	73.037
821.097	70.8994
821.579	72.1985
822.061	72.0778
822.543	73.1628
823.025	73.1021
823.507	70.5108
823.99	72.8924
824.472	69.2178
824.954	100.143
825.436	96.8466
825.918	67.7048
826.4	75.8328
826.882	84.4277
827.365	117.083
827.847	114.63
828.329	79.0259
828.811	70.6757
829.293	71.2914
829.775	68.5212
830.258	69.5876
830.74	69.2134
831.222	69.7711
831.704	66.7515
832.186	68.8051
832.668	67.4665
833.15	69.0784
833.633	66.2071
834.115	69.0973
834.597	66.2321
835.079	72.6846
835.561	93.7457
836.043	71.3478
836.525	66.1531
837.008	68.2392
837.49	65.6963
837.972	70.5248
838.454	67.4687
838.936	69.821
839.418	80.56
839.9	130.333
840.383	98.6086
840.865	73.4912
841.347	70.1518
841.829	86.0006
842.311	73.3475
842.793	65.0344
843.276	66.44
843.758	65.5932
844.24	65.8535
844.722	65.6002
845.204	65.3152
845.686	68.9401
846.168	65.7075
846.651	65.7937
847.133	64.5664
847.615	65.775
848.097	65.7713
848.579	68.326
849.061	77.0451
849.543	123.352
850.026	87.458
850.508	68.5847
850.99	71.8174
851.472	72.4224
851.954	91.7373
852.436	133.699
852.918	121.69
853.401	104.389
853.883	76.9222
854.365	115.532
854.847	112.59
855.329	69.5231
855.811	68.2061
856.293	62.8745
856.776	63.3176
857.258	62.3569
857.74	60.8577
858.222	69.0469
858.704	78.9993
859.186	57.9056
859.668	75.3435
860.151	59.6378
860.633	62.5992
861.115	59.2272
861.597	61.5055
862.079	58.5347
862.561	62.0136
863.044	58.5643
863.526	61.3189
864.008	59.3005
864.49	65.8089
864.972	94.0679
865.454	109.688
865.936	68.1715
866.419	60.3722
866.901	59.7153
867.383	58.9489
867.865	58.7025
868.347	59.6271
868.829	57.6257
869.311	58.9049
869.794	58.9426
870.276	61.028
870.758	70.8474
871.24	115.922
871.722	75.369
872.204	59.5971
872.686	59.1328
873.169	57.9227
873.651	57.3723
874.133	57.3952
874.615	56.8507
875.097	56.9281
875.579	57.8113
876.062	58.7518
876.544	56.6992
877.026	57.9529
877.508	57.5834
877.99	63.152
878.472	104.117
878.954	76.7673
879.437	53.2729
879.919	61.1188
880.401	51.126
880.883	73.2736
881.365	65.0285
881.847	56.2134
882.329	53.7718
882.812	68.9805
883.294	74.6554
883.776	94.5981
884.258	73.6652
884.74	51.0629
885.222	58.9238
885.704	52.6182
886.187	59.4497
886.669	60.243
887.151	110.832
887.633	76.2423
888.115	58.1399
888.597	91.5934
889.079	63.0774
889.562	52.2883
890.044	76.7863
890.526	54.4827
891.008	65.1924
891.49	71.6766
891.972	49.3466
892.454	55.1119
892.937	50.4424
893.419	53.9011
893.901	49.9242
894.383	53.3263
894.865	50.6355
895.347	53.2765
895.83	51.3983
896.312	58.225
896.794	52.6541
897.276	53.8692
897.758	64.7242
898.24	51.9963
898.722	50.8624
899.205	51.4582
899.687	50.1592
900.169	50.7603
900.651	49.4591
901.133	50.724
901.615	48.6182
902.097	51.7058
902.58	50.9531
903.062	50.9725
903.544	48.1127
904.026	51.8934
904.508	47.2712
904.99	53.3646
905.472	51.7907
905.955	65.6316
906.437	79.8202
906.919	56.502
907.401	50.5379
907.883	56.3081
908.365	60.3764
908.848	108.327
909.33	84.0095
909.812	52.6757
910.294	67.7568
910.776	54.4885
911.258	51.3142
911.74	47.8443
912.223	49.6357
912.705	49.0481
913.187	47.1031
913.669	58.9198
914.151	68.9502
914.633	45.1696
915.115	51.9314
915.598	43.6894
916.08	50.2631
916.562	44.7166
917.044	50.1221
917.526	44.0108
918.008	52.1794
918.49	68.2475
918.973	51.2595
919.455	43.569
919.937	50.458
920.419	43.0454
920.901	54.8147
921.383	64.5555
921.865	85.9822
922.348	86.519
922.83	50.4277
923.312	48.9564
923.794	47.9172
924.276	43.7737
924.758	75.6092
925.24	79.6239
925.723	44.5528
926.205	47.9831
926.687	43.6927
927.169	47.6895
927.651	43.8937
928.133	44.7219
928.616	52.8954
929.098	59.315
929.58	41.7469
930.062	46.4459
930.544	42.1698
931.026	49.0851
931.508	42.526
931.991	47.0101
932.473	44.1394
932.955	46.8996
933.437	41.8505
933.919	43.4534
934.401	41.4788
934.883	47.5952
935.366	41.5648
935.848	42.1521
936.33	41.4863
936.812	46.7051
937.294	45.3918
937.776	42.7147
938.258	41.782
938.741	46.6235
939.223	39.7348
939.705	42.4126
940.187	41.532
940.669	54.3222
941.151	58.2616
941.634	39.6933
942.116	44.3372
942.598	45.1002
943.08	38.9592
943.562	42.0146
944.044	45.0154
944.526	53.7702
945.009	55.3917
945.491	40.1031
945.973	47.094
946.455	43.1124
946.937	45.5522
947.419	41.5356
947.901	72.1962
948.384	95.6975
948.866	43.8465
949.348	48.7038
949.83	40.7057
950.312	39.6968
950.794	38.7156
951.276	46.9246
951.759	35.5726
952.241	41.6947
952.723	38.6822
953.205	69.0795
953.687	52.2678
954.169	44.1731
954.651	43.4077
955.134	60.6275
955.616	65.8447
956.098	42.5248
956.58	39.139
957.062	35.6104
957.544	39.3646
958.026	38.5368
958.509	36.0229
958.991	46.9389
959.473	52.5648
959.955	42.011
960.437	40.8341
960.919	40.0535
961.402	36.9696
961.884	40.9719
962.366	35.9234
962.848	36.1317
963.33	37.465
963.812	35.7906
964.294	34.6269
964.777	40.9649
965.259	33.9705
965.741	48.1496
966.223	44.7802
966.705	50.6333
967.187	47.8162
967.669	37.9435
968.152	39.5433
968.634	31.6599
969.116	44.0694
969.598	32.9203
970.08	40.2785
970.562	47.8592
971.044	44.8054
971.527	67.2598
972.009	47.6889
972.491	34.723
972.973	40.6829
973.455	65.8861
973.937	59.7344
974.42	43.4792
974.902	40.4991
975.384	35.733
975.866	76.936
976.348	50.9249
976.83	32.7866
977.312	65.0478
977.795	42.1322
978.277	37.3232
978.759	39.6676
979.241	32.7879
979.723	39.3831
980.205	32.4246
980.687	36.7104
981.17	38.4266
981.652	37.5778
982.134	39.2438
982.616	32.9286
983.098	35.5327
983.58	34.8093
984.062	42.8884
984.545	37.9286
985.027	31.1282
985.509	36.2119
985.991	31.2247
986.473	35.0887
986.955	31.1016
987.438	34.2313
987.92	31.9003
988.402	32.5728
988.884	34.1161
989.366	32.7352
989.848	34.4766
990.33	37.3407
990.812	31.5131
991.295	32.608
991.777	33.0054
992.259	32.5419
992.741	32.6991
993.223	33.8318
993.705	30.4169
994.188	35.444
994.67	35.1445
995.152	32.4596
995.634	34.9008
996.116	31.6472
996.598	32.437
997.08	33.6095
997.563	34.1986
998.045	32.8087
998.527	44.3994
999.009	51.4159
999.491	29.4603
999.973	45.6717
1000.46	48.5616
1000.94	36.805
1001.42	33.8028
1001.9	33.7718
1002.38	35.7962
1002.87	32.0616
1003.35	41.4346
1003.83	44.497
1004.31	37.0818
1004.79	39.3769
1005.28	31.3931
1005.76	37.8465
1006.24	32.8961
1006.72	36.6022
1007.21	41.2402
1007.69	38.6851
1008.17	33.1341
1008.65	39.1478
1009.13	30.2227
1009.62	51.4868
1010.1	62.6356
1010.58	59.217
1011.06	56.5572
1011.54	35.9608
1012.03	43.6525
1012.51	34.1254
1012.99	39.5312
1013.47	38.0913
1013.96	45.6032
1014.44	86.3965
1014.92	52.4997
1015.4	38.4334
1015.88	39.6597
1016.37	39.7065
1016.85	41.5125
1017.33	51.7695
1017.81	80.9201
1018.29	44.9853
1018.78	43.9962
1019.26	39.5723
1019.74	44.3267
1020.22	39.2047
1020.71	41.7462
1021.19	40.8096
1021.67	40.466
1022.15	43.591
1022.63	39.8341
1023.12	42.7548
1023.6	38.5963
1024.08	40.1715
1024.56	40.7718
1025.04	42.4953
1025.53	40.6408
1026.01	38.6242
1026.49	40.5068
1026.97	41.7857
1027.46	42.4024
1027.94	46.397
1028.42	77.1648
1028.9	47.9332
1029.38	70.2343
1029.87	60.188
1030.35	48.878
1030.83	53.822
1031.31	38.9378
1031.8	43.9855
1032.28	44.8728
1032.76	50.9695
1033.24	42.6399
1033.72	41.2182
1034.21	37.9526
1034.69	42.7614
1035.17	40.8809
1035.65	41.2517
1036.13	37.1256
1036.62	41.3861
1037.1	39.9748
1037.58	43.8876
1038.06	42.2621
1038.55	43.5938
1039.03	44.8472
1039.51	69.5817
1039.99	42.6821
1040.47	43.2133
1040.96	41.8535
1041.44	46.7161
1041.92	31.301
1042.4	44.9489
1042.88	39.7436
1043.37	30.7706
1043.85	26.9746
1044.33	28.9636
1044.81	36.3639
1045.3	34.4933
1045.78	30.0943
1046.26	38.0485
1046.74	39.9555
1047.22	39.955
1047.71	37.4
1048.19	44.2824
1048.67	39.4763
1049.15	65.7533
1049.63	49.477
1050.12	47.4346
1050.6	51.6451
1051.08	61.1578
1051.56	55.5872
1052.05	47.4576
1052.53	48.4939
1053.01	39.2964
1053.49	48.7471
1053.97	48.418
1054.46	42.8739
1054.94	45.0294
1055.42	63.9522
1055.9	53.7054
1056.38	43.4441
1056.87	40.4749
1057.35	49.8503
1057.83	37.7732
1058.31	47.6956
1058.8	54.2048
1059.28	39.5768
1059.76	51.5027
1060.24	65.977
1060.72	37.662
1061.21	40.4592
1061.69	36.318
1062.17	42.6284
1062.65	60.5688
1063.13	35.9235
1063.62	35.5136
1064.1	30.7758
1064.58	34.9362
1065.06	33.7042
1065.55	44.7764
1066.03	88.1125
1066.51	72.1125
1066.99	33.2088
1067.47	35.0584
1067.96	26.0892
1068.44	26.8276
1068.92	29.9438
1069.4	27.2556
1069.88	20.3652
1070.37	32.5384
1070.85	22.9658
1071.33	25.432
1071.81	27.2141
1072.3	40.4165
1072.78	43.0312
1073.26	34.0578
1073.74	29.4575
1074.22	70.6915
1074.71	65.4005
1075.19	21.8063
1075.67	32.8965
1076.15	38.4384
1076.63	24.2218
1077.12	29.744
1077.6	28.3211
1078.08	19.1302
1078.56	32.2223
1079.05	21.0139
1079.53	25.9004
1080.01	29.1773
1080.49	20.2685
1080.97	31.8938
1081.46	32.4674
1081.94	22.3615
1082.42	29.7911
1082.9	18.271
1083.38	29.2347
1083.87	21.518
1084.35	26.7145
1084.83	25.735
1085.31	40.3598
1085.8	35.2328
1086.28	18.7992
1086.76	26.4494
1087.24	21.4502
1087.72	27.9322
1088.21	27.7817
1088.69	21.6483
1089.17	24.9451
1089.65	21.7578
1090.13	28.0016
1090.62	31.8838
1091.1	78.2237
1091.58	52.6931
1092.06	24.6516
1092.55	25.3231
1093.03	21.402
1093.51	23.3769
1093.99	20.8106
1094.47	22.4504
1094.96	20.0446
1095.44	22.1552
1095.92	20.0177
1096.4	22.3233
1096.88	20.0073
1097.37	22.4728
1097.85	19.9923
1098.33	24.6489
1098.81	22.3744
1099.3	49.8316
1099.78	73.5169
1100.26	33.1751
1100.74	27.7559
1101.22	64.3191
1101.71	63.8369
1102.19	21.567
1102.67	30.2151
1103.15	19.1489
1103.64	24.2088
1104.12	18.8607
1104.6	26.1981
1105.08	24.6043
1105.56	29.7438
1106.05	34.6662
1106.53	79.0744
1107.01	70.5132
1107.49	32.6758
1107.97	25.9207
1108.46	27.551
1108.94	21.3873
1109.42	22.343
1109.9	21.6758
1110.39	29.7953
1110.87	33.0659
1111.35	76.3619
1111.83	62.0175
1112.31	26.4645
1112.8	25.2426
1113.28	19.8013
1113.76	20.9137
1114.24	21.0089
1114.72	23.7908
1115.21	21.4637
1115.69	20.6873
1116.17	19.1792
1116.65	22.5726
1117.14	22.4421
1117.62	42.9224
1118.1	23.4882
1118.58	23.4705
1119.06	21.9062
1119.55	23.6439
1120.03	25.4533
1120.51	49.2603
1120.99	85.0531
1121.47	68.7357
1121.96	33.1008
1122.44	25.518
1122.92	20.7472
1123.4	21.6072
1123.89	25.7755
1124.37	19.3666
1124.85	19.3687
1125.33	18.2058
1125.81	20.6961
1126.3	18.7037
1126.78	18.7843
1127.26	18.5751
