
Temp = 293.8K  -  Data version 1
Harder, Brault, Johnston and Mount  [JGR, 102, 3861-3880, 1997]
"Temperature Dependent NO2 Cross Sections at High Spectral Resolution"
NO2 cross section [10^-19 cm^2/molecule]
  Data Smoothed with a Gaussian FWHM = 0.1 nm
    Compiled by E.P.Shettle, NRL, Washington, DC

Nvalues  1st Wave  d(wave) last Wave   Temp
          [nm]     [nm]     [nm]       [K]
  4093    345.2     0.05     549.8     293.8

 4.3500 4.3643 4.3726 4.3638 4.3283 4.2837 4.2573 4.2448 4.2331 4.2405
 4.2686 4.3019 4.3382 4.3665 4.3952 4.4387 4.4915 4.5423 4.5853 4.5931
 4.6003 4.6398 4.6567 4.6607 4.6806 4.6625 4.6545 4.6705 4.7184 4.7631
 4.7516 4.7458 4.7595 4.7477 4.7059 4.6951 4.6814 4.6268 4.5794 4.5492
 4.5303 4.5072 4.4825 4.4533 4.4340 4.4402 4.4586 4.4561 4.4396 4.4366
 4.4393 4.4595 4.5079 4.5483 4.5993 4.6505 4.6963 4.8148 4.9985 5.1537
 5.2746 5.3668 5.4409 5.5021 5.5337 5.5549 5.5493 5.5039 5.4509 5.3920
 5.3215 5.2456 5.1845 5.1381 5.0975 5.0534 4.9658 4.8680 4.7814 4.6807
 4.5838 4.5069 4.4269 4.3515 4.3115 4.2819 4.2587 4.2580 4.2409 4.2395
 4.2485 4.2277 4.2167 4.2485 4.2763 4.2589 4.2500 4.2735 4.2896 4.3060
 4.3219 4.3556 4.3891 4.4262 4.4830 4.5350 4.5965 4.6400 4.6583 4.6624
 4.6828 4.7212 4.7568 4.7702 4.7649 4.7652 4.7796 4.8127 4.8390 4.8521
 4.8561 4.8668 4.8757 4.8538 4.8130 4.7772 4.7425 4.7048 4.6407 4.5797
 4.5270 4.4904 4.4693 4.4527 4.4620 4.4965 4.5431 4.5932 4.6451 4.6862
 4.7108 4.7263 4.7329 4.7326 4.7339 4.7153 4.6843 4.6683 4.6379 4.5755
 4.5053 4.4325 4.3606 4.3104 4.2711 4.2439 4.2251 4.2118 4.2059 4.2237
 4.2639 4.2740 4.2802 4.3125 4.3712 4.4241 4.4577 4.5033 4.5739 4.6523
 4.7264 4.7976 4.8781 4.9529 5.0252 5.0979 5.1715 5.2568 5.3453 5.4278
 5.5089 5.5905 5.6585 5.6975 5.7131 5.7203 5.7353 5.7345 5.7187 5.7123
 5.6905 5.6545 5.6129 5.5687 5.5294 5.4747 5.3977 5.3234 5.2681 5.2254
 5.1842 5.1423 5.0906 5.0359 4.9884 4.9531 4.9237 4.8760 4.8380 4.8099
 4.7856 4.7589 4.7174 4.6947 4.6936 4.6909 4.7054 4.7440 4.7853 4.8129
 4.8378 4.8707 4.9037 4.9278 4.9593 4.9933 5.0340 5.0879 5.1451 5.2129
 5.2892 5.3600 5.4282 5.4898 5.5529 5.6202 5.6852 5.7411 5.7975 5.8496
 5.8800 5.8735 5.8588 5.8441 5.8189 5.7949 5.7674 5.7442 5.7101 5.6522
 5.5965 5.5494 5.5104 5.4874 5.4718 5.4502 5.4358 5.4110 5.3726 5.3417
 5.3193 5.2941 5.2606 5.2350 5.2147 5.1798 5.1436 5.1136 5.0860 5.0565
 5.0228 4.9907 4.9613 4.9323 4.9011 4.8693 4.8338 4.7988 4.7702 4.7680
 4.7906 4.8029 4.8106 4.8299 4.8435 4.8440 4.8369 4.8339 4.8327 4.8272
 4.8251 4.8368 4.8365 4.8108 4.7909 4.7923 4.7914 4.7957 4.8180 4.8498
 4.8875 4.9370 4.9938 5.0521 5.1085 5.1504 5.1809 5.2219 5.2770 5.3474
 5.4028 5.4378 5.4632 5.4906 5.5280 5.5513 5.5596 5.5746 5.5815 5.5751
 5.5651 5.5413 5.5069 5.4796 5.4475 5.4119 5.3885 5.3571 5.3190 5.2927
 5.2762 5.2656 5.2498 5.2242 5.2076 5.2073 5.2165 5.2405 5.2692 5.2856
 5.2982 5.3101 5.3273 5.3364 5.3354 5.3514 5.3743 5.3805 5.3768 5.3753
 5.3662 5.3521 5.3634 5.3883 5.4046 5.4095 5.4030 5.3955 5.3843 5.3613
 5.3426 5.3328 5.3283 5.3233 5.3208 5.3177 5.2899 5.2561 5.2338 5.1982
 5.1497 5.1011 5.0685 5.0683 5.0856 5.1071 5.1383 5.1797 5.2293 5.2840
 5.3363 5.3898 5.4354 5.4700 5.4963 5.5216 5.5656 5.6251 5.6836 5.7452
 5.8012 5.8378 5.8616 5.8863 5.9143 5.9535 6.0101 6.0654 6.1107 6.1773
 6.2517 6.3150 6.3527 6.3541 6.3289 6.3042 6.2816 6.2617 6.2591 6.2391
 6.1919 6.1346 6.0854 6.0361 5.9755 5.9209 5.8648 5.8050 5.7360 5.6560
 5.5690 5.4922 5.4319 5.3776 5.3303 5.2944 5.2735 5.2561 5.2468 5.2497
 5.2548 5.2655 5.2853 5.3230 5.3718 5.4221 5.4749 5.5219 5.5643 5.6079
 5.6664 5.7403 5.8010 5.8406 5.8575 5.8653 5.8641 5.8527 5.8272 5.8041
 5.7876 5.7733 5.7588 5.7349 5.7139 5.7236 5.7489 5.7538 5.7456 5.7264
 5.7047 5.6829 5.6538 5.6211 5.6038 5.6075 5.6059 5.5938 5.5710 5.5234
 5.4735 5.4493 5.4509 5.4741 5.5020 5.5108 5.5159 5.5427 5.5794 5.6060
 5.6356 5.6723 5.6947 5.6904 5.6771 5.6582 5.6431 5.6441 5.6390 5.6266
 5.6096 5.5942 5.5868 5.5802 5.5931 5.6347 5.6789 5.7098 5.7231 5.7156
 5.6995 5.6831 5.6632 5.6497 5.6265 5.5840 5.5381 5.5009 5.4638 5.4194
 5.3642 5.3075 5.2683 5.2440 5.2426 5.2631 5.3021 5.3659 5.4371 5.4867
 5.5112 5.5240 5.5411 5.5782 5.6336 5.6940 5.7567 5.8364 5.9278 6.0082
 6.0796 6.1401 6.1800 6.2228 6.2855 6.3491 6.3869 6.3915 6.3811 6.3621
 6.3367 6.3266 6.3412 6.3647 6.3735 6.3753 6.3730 6.3603 6.3337 6.2954
 6.2530 6.1972 6.1342 6.0725 6.0205 5.9643 5.9058 5.8653 5.8362 5.8063
 5.7804 5.7643 5.7462 5.7200 5.6928 5.6597 5.6254 5.6004 5.5978 5.6111
 5.6286 5.6543 5.7020 5.7607 5.8020 5.8181 5.8153 5.7974 5.7673 5.7479
 5.7288 5.6994 5.6577 5.5950 5.5220 5.4649 5.4326 5.4111 5.3964 5.3988
 5.4084 5.4172 5.4382 5.4635 5.4821 5.5111 5.5641 5.6465 5.7371 5.8298
 5.9136 5.9813 6.0374 6.0849 6.1280 6.1623 6.1883 6.2040 6.2112 6.2247
 6.2452 6.2710 6.2849 6.2709 6.2636 6.2981 6.3793 6.4917 6.6024 6.7064
 6.7970 6.8705 6.9161 6.9264 6.9079 6.8783 6.8333 6.7750 6.7165 6.6653
 6.6246 6.5803 6.5193 6.4281 6.3192 6.2221 6.1428 6.0757 6.0279 5.9835
 5.9230 5.8502 5.7743 5.6911 5.6073 5.5478 5.5230 5.5137 5.5068 5.5034
 5.4997 5.4901 5.4964 5.5353 5.5814 5.6107 5.5979 5.5650 5.5346 5.4953
 5.4619 5.4427 5.4356 5.4500 5.4839 5.5228 5.5471 5.5436 5.5339 5.5415
 5.5720 5.6045 5.6256 5.6360 5.6476 5.6786 5.7254 5.7660 5.7914 5.8155
 5.8577 5.9243 6.0048 6.0765 6.1472 6.2417 6.3513 6.4523 6.5416 6.6194
 6.6706 6.6911 6.7041 6.7174 6.7149 6.6897 6.6447 6.5862 6.5258 6.4849
 6.4723 6.4723 6.4649 6.4432 6.4246 6.4240 6.4333 6.4419 6.4517 6.4520
 6.4523 6.4426 6.4044 6.3468 6.2901 6.2510 6.2225 6.2011 6.1843 6.1646
 6.1494 6.1323 6.1189 6.1158 6.1011 6.0824 6.0699 6.0728 6.0991 6.1390
 6.1695 6.1695 6.1470 6.1116 6.0719 6.0527 6.0573 6.0755 6.1100 6.1503
 6.1488 6.0982 6.0194 5.9198 5.8153 5.7281 5.6832 5.6550 5.6367 5.6559
 5.7067 5.7607 5.7922 5.7991 5.7790 5.7471 5.7315 5.7385 5.7523 5.7881
 5.8589 5.9337 5.9652 5.9598 5.9534 5.9491 5.9266 5.8952 5.8987 5.9552
 6.0336 6.0953 6.1421 6.1963 6.2608 6.3094 6.3207 6.2921 6.2335 6.1729
 6.1394 6.1471 6.1781 6.2321 6.3135 6.3916 6.4390 6.4585 6.4599 6.4674
 6.5158 6.5971 6.6604 6.6662 6.6055 6.5162 6.4480 6.3957 6.3170 6.2351
 6.1843 6.1764 6.2015 6.2206 6.2183 6.1891 6.1617 6.1875 6.2762 6.4062
 6.5196 6.5421 6.4765 6.3869 6.3068 6.2206 6.1282 6.0534 5.9983 5.9552
 5.9150 5.8652 5.8174 5.7822 5.7498 5.7220 5.7138 5.7133 5.7245 5.7606
 5.8059 5.8475 5.9069 5.9933 6.0627 6.0934 6.1205 6.1505 6.1767 6.2010
 6.2211 6.2328 6.2483 6.2836 6.3165 6.3307 6.3356 6.3356 6.3218 6.3088
 6.3140 6.3362 6.3640 6.3891 6.4039 6.3990 6.3668 6.3180 6.2784 6.2531
 6.2341 6.2059 6.1652 6.1248 6.0972 6.0936 6.1020 6.0935 6.0830 6.0998
 6.1418 6.1722 6.1784 6.2077 6.2702 6.3416 6.4124 6.4813 6.5506 6.6022
 6.6223 6.5984 6.5496 6.5219 6.5195 6.5006 6.4492 6.3822 6.3102 6.2475
 6.2145 6.2118 6.2271 6.2563 6.3022 6.3560 6.3793 6.3582 6.3425 6.3521
 6.3793 6.4268 6.4753 6.4835 6.4502 6.4077 6.3661 6.3194 6.2695 6.2515
 6.2485 6.2248 6.1874 6.1741 6.1721 6.1729 6.2033 6.2351 6.2668 6.2975
 6.3081 6.3080 6.3034 6.2555 6.2075 6.2578 6.3911 6.5182 6.6263 6.7388
 6.8529 6.9851 7.0947 7.1173 7.0541 6.9223 6.7612 6.6357 6.5401 6.4528
 6.3956 6.3767 6.3935 6.4297 6.4265 6.3805 6.3662 6.3940 6.4116 6.3924
 6.3824 6.4000 6.4006 6.3558 6.2631 6.1522 6.0394 5.9215 5.8096 5.7362
 5.7054 5.6812 5.6456 5.6244 5.6497 5.7132 5.7879 5.8324 5.8571 5.8962
 5.9285 5.9264 5.9025 5.8754 5.8594 5.8739 5.8975 5.8996 5.8766 5.8137
 5.7471 5.7129 5.7072 5.7139 5.7188 5.7212 5.7145 5.7052 5.7012 5.6880
 5.6658 5.6940 5.7924 5.9028 5.9846 6.0314 6.0542 6.0620 6.0971 6.1771
 6.2690 6.3432 6.4235 6.5311 6.6449 6.7426 6.7476 6.6644 6.5871 6.5703
 6.6024 6.6442 6.6908 6.7584 6.8127 6.7787 6.6451 6.5097 6.4387 6.3741
 6.2793 6.2094 6.1845 6.1489 6.0658 5.9910 5.9338 5.8936 5.8708 5.8185
 5.7575 5.7486 5.7736 5.7965 5.8077 5.8131 5.8241 5.8172 5.8368 5.8531
 5.8108 5.7533 5.7334 5.7420 5.7315 5.6942 5.7117 5.8122 5.9602 6.1149
 6.2068 6.2489 6.3237 6.5019 6.6604 6.7572 6.8078 6.7896 6.7779 6.8490
 6.9191 6.9303 6.9472 7.0362 7.1684 7.2361 7.2174 7.1252 6.9777 6.8564
 6.7728 6.6597 6.5189 6.3404 6.1615 6.0243 5.9427 5.9082 5.8860 5.8553
 5.8280 5.8225 5.8183 5.8628 5.9626 6.0408 6.1188 6.2358 6.3131 6.3245
 6.3692 6.4833 6.6073 6.6903 6.7749 6.8989 7.0346 7.1235 7.1389 7.0961
 7.0941 7.1028 7.0000 6.8909 6.8942 6.9748 7.0449 7.0176 6.8978 6.8092
 6.7785 6.7749 6.8084 6.8609 6.8639 6.7924 6.7424 6.7913 6.8665 6.8444
 6.7558 6.6988 6.6736 6.6233 6.5849 6.5443 6.5025 6.4920 6.4833 6.4203
 6.3705 6.3905 6.4050 6.3650 6.2924 6.1749 6.1079 6.0797 6.0342 5.9232
 5.8336 5.7965 5.8033 5.8136 5.7953 5.7534 5.7127 5.6775 5.6402 5.5919
 5.5419 5.5613 5.6300 5.6812 5.7103 5.6965 5.6806 5.6300 5.5551 5.5355
 5.5554 5.5776 5.5662 5.5668 5.6365 5.7237 5.7504 5.7491 5.7305 5.7486
 5.8475 6.0294 6.2193 6.3426 6.4014 6.4508 6.5022 6.4702 6.4091 6.3640
 6.3070 6.2533 6.1904 6.1271 6.1058 6.0783 6.0736 6.0142 5.9561 5.9754
 6.0814 6.2681 6.4831 6.7257 6.8000 6.6104 6.4271 6.5006 6.7341 6.9710
 7.1362 7.2607 7.1848 6.9074 6.6868 6.5926 6.4552 6.2807 6.1876 6.1178
 5.9638 5.8184 5.7773 5.8085 5.8317 5.8655 5.8834 5.8311 5.7928 5.8725
 5.9632 6.0029 5.9795 5.8691 5.7112 5.5792 5.5177 5.5206 5.4283 5.2562
 5.1473 5.1456 5.1788 5.1783 5.1398 5.1356 5.1651 5.1366 5.0807 5.0838
 5.1447 5.1793 5.1551 5.1300 5.1705 5.2688 5.3606 5.3799 5.4340 5.6009
 5.8117 5.8940 5.9027 6.0186 6.2723 6.5424 6.5679 6.3799 6.3802 6.5856
 6.8321 7.1574 7.4149 7.4343 7.4770 7.4909 7.4205 7.3182 7.1546 7.0486
 6.9700 6.8267 6.6825 6.6552 6.6611 6.6644 6.6601 6.5105 6.2857 6.1558
 6.1736 6.2791 6.3629 6.4511 6.5669 6.6302 6.6270 6.6416 6.6761 6.6159
 6.4485 6.2703 6.1242 6.0487 6.0537 6.0680 6.0952 6.1874 6.2439 6.3666
 6.6453 6.9338 7.1446 7.1587 7.0494 7.0944 7.2273 7.1859 7.0328 6.8523
 6.6830 6.6280 6.6775 6.7331 6.6520 6.5157 6.4036 6.2113 6.0816 6.0486
 5.9763 5.8799 5.8024 5.7201 5.6452 5.6064 5.5738 5.4605 5.3938 5.4212
 5.5297 5.6282 5.5884 5.5076 5.5132 5.5633 5.5507 5.4997 5.4638 5.4995
 5.5254 5.4807 5.4231 5.4709 5.6274 5.6890 5.7787 5.9863 6.1371 6.2169
 6.3010 6.3432 6.3210 6.4011 6.4731 6.5957 6.8613 7.1234 7.2439 7.3037
 7.3099 7.3148 7.5146 7.8631 7.9987 7.8884 7.8214 7.8865 7.8586 7.7074
 7.4749 7.3262 7.1846 6.8821 6.5844 6.3419 6.1618 6.0600 5.9351 5.7651
 5.6834 5.7173 5.6548 5.5794 5.6826 5.8418 5.9255 5.9899 6.0554 6.0618
 6.0433 6.0358 6.0400 6.0120 5.9572 6.0049 6.1246 6.2196 6.1965 6.1223
 6.0801 5.9964 5.7714 5.6343 5.5622 5.4617 5.3394 5.2092 5.1070 5.0416
 4.9848 4.9862 5.0499 5.1221 5.1834 5.2018 5.1347 5.0427 5.0025 5.0390
 5.1165 5.1792 5.1854 5.1179 5.0854 5.0555 5.0441 5.1316 5.2153 5.2253
 5.1681 5.1282 5.1069 5.1099 5.1264 5.1720 5.2887 5.4127 5.4672 5.5162
 5.6829 5.8217 5.8234 5.7146 5.6408 5.6489 5.5767 5.4618 5.4327 5.4807
 5.5454 5.6676 5.8234 5.8949 5.8873 5.7878 5.6294 5.6130 5.7733 5.9007
 5.9542 5.9057 5.8219 5.8361 5.8798 5.9997 6.1490 6.1768 6.1608 6.1396
 6.0045 5.7945 5.6172 5.5565 5.5349 5.4892 5.5124 5.5766 5.5782 5.6275
 5.8458 6.0830 6.1993 6.1688 6.1322 6.0669 6.0456 6.1591 6.3318 6.3752
 6.3033 6.3367 6.3796 6.3258 6.2132 6.0897 5.9978 5.9236 5.9515 6.1193
 6.2658 6.3171 6.3031 6.2724 6.2168 6.1751 6.1946 6.1494 6.0446 6.0135
 6.0720 6.2441 6.4822 6.5637 6.4283 6.3643 6.4270 6.3987 6.2491 6.1596
 6.0712 5.9613 5.9315 5.8675 5.8024 5.7788 5.7637 5.8416 5.9439 5.9382
 5.9074 6.0667 6.2851 6.4398 6.5565 6.6638 6.6205 6.5801 6.5402 6.3531
 6.2183 6.2016 6.2149 6.2624 6.2894 6.2748 6.2932 6.2448 6.1224 6.0958
 6.0627 6.0410 6.0010 5.9951 6.0315 5.9485 5.8921 5.8881 5.8381 5.7896
 5.9902 6.2852 6.2948 6.1099 6.1264 6.4082 6.5124 6.3973 6.3359 6.3028
 6.2317 6.2964 6.4802 6.4991 6.4124 6.3896 6.4968 6.6905 6.7535 6.4514
 6.2497 6.2901 6.4234 6.6041 6.8301 6.9507 6.8599 6.7602 6.7249 6.6683
 6.5803 6.5471 6.5277 6.4149 6.2167 6.0117 5.8822 5.7605 5.6784 5.6612
 5.5863 5.4574 5.3714 5.4022 5.5274 5.5618 5.5425 5.5030 5.2928 5.1509
 5.1236 5.0345 4.9102 4.8428 4.8815 4.8651 4.7084 4.5785 4.5819 4.5822
 4.5684 4.6313 4.7083 4.7210 4.6724 4.6224 4.6399 4.6485 4.5864 4.5276
 4.5044 4.4957 4.5700 4.7585 4.9505 5.1468 5.4896 5.7328 5.6464 5.5125
 5.6341 5.8793 6.0336 6.1892 6.3693 6.3546 6.2064 6.0303 5.9055 5.9176
 6.0953 6.3062 6.3290 6.1255 6.0883 6.2618 6.4030 6.5126 6.4477 6.2134
 6.0990 6.0961 6.0397 5.9911 6.0523 6.0592 5.9031 5.6981 5.5013 5.3404
 5.3224 5.3339 5.3483 5.3747 5.4027 5.3721 5.2456 5.1373 4.9892 4.7947
 4.7065 4.7712 4.7157 4.6055 4.5493 4.4656 4.4201 4.4614 4.4740 4.4236
 4.4009 4.3806 4.3732 4.4025 4.4264 4.5274 4.6643 4.8016 5.0600 5.2420
 5.2243 5.2531 5.3934 5.7391 6.0054 6.0277 6.1891 6.2729 6.1757 6.0770
 6.0509 6.1466 6.2240 6.3507 6.4500 6.4623 6.4445 6.2510 5.9559 5.9027
 6.0039 6.0364 6.0210 6.0045 5.9885 5.9371 5.8814 5.8777 5.8688 5.7477
 5.5830 5.4641 5.4291 5.4117 5.3293 5.2060 5.0966 4.9650 4.8317 4.7614
 4.7316 4.7416 4.7386 4.6789 4.6240 4.4988 4.3669 4.3562 4.4848 4.6145
 4.6458 4.6028 4.6039 4.7141 4.8703 4.9911 5.0704 5.1427 5.1675 5.1923
 5.2208 5.3112 5.4296 5.4947 5.5898 5.7185 5.7815 5.7500 5.7236 5.7913
 5.9468 6.0562 5.9961 5.9746 6.0097 6.0668 6.0621 5.9327 5.8304 5.7111
 5.5174 5.3958 5.4789 5.5094 5.4928 5.5432 5.5578 5.5935 5.6911 5.8203
 6.1088 6.5736 6.9727 7.1354 7.0522 7.1845 7.6364 7.6439 7.3127 7.2543
 7.3161 7.3334 7.3076 7.0336 6.5816 6.3112 6.2282 6.1382 6.0936 6.1645
 6.2226 6.2227 6.1851 6.1073 5.9419 5.8045 5.7552 5.7682 5.8773 5.9292
 5.8159 5.6201 5.5599 5.5809 5.5486 5.4955 5.4964 5.3891 5.2657 5.2490
 5.3292 5.3144 5.2458 5.1434 5.0218 4.8661 4.6926 4.5598 4.4855 4.4302
 4.3943 4.3488 4.3151 4.2884 4.2661 4.2233 4.1371 4.1138 4.1390 4.1318
 4.1201 4.1395 4.1593 4.1329 4.0384 3.9669 3.9177 3.9428 4.0099 4.0059
 4.0244 4.0990 4.1494 4.2526 4.3833 4.5669 4.9217 5.3891 5.7178 5.8755
 6.0799 6.2581 6.3294 6.3791 6.6156 7.0205 7.2691 7.0942 6.7073 6.4588
 6.6020 6.9226 7.1558 7.3127 7.2935 7.0660 6.8367 6.7341 6.6276 6.3755
 6.0989 5.9414 5.9792 6.1282 6.1276 5.9664 6.0057 6.0452 5.9506 5.8172
 5.5447 5.2151 4.9509 4.8354 4.7284 4.5068 4.3571 4.3552 4.4364 4.4897
 4.4874 4.3608 4.2672 4.3147 4.3853 4.3986 4.4012 4.4007 4.4303 4.4089
 4.3048 4.1356 4.0308 3.9847 3.9229 3.8412 3.7767 3.7731 3.7955 3.8333
 3.8403 3.7536 3.6465 3.5701 3.5498 3.5551 3.6380 3.8409 4.0480 4.0650
 4.0577 4.0097 3.9068 3.9001 3.9284 3.9702 4.0090 3.9940 3.9900 4.0353
 4.1153 4.2319 4.3389 4.3550 4.3285 4.3355 4.3316 4.3564 4.3193 4.2558
 4.2593 4.3083 4.3848 4.5481 4.6458 4.5751 4.5653 4.5987 4.6066 4.6357
 4.5856 4.5120 4.4940 4.5365 4.5157 4.5073 4.6763 4.8849 4.9843 5.0490
 5.1869 5.4547 5.5926 5.4613 5.3759 5.4732 5.7124 6.1154 6.5786 6.6327
 6.5427 6.7972 7.0584 6.9783 6.8115 6.5837 6.3056 6.1787 6.1207 6.0081
 5.8278 5.6155 5.4658 5.4909 5.4802 5.3739 5.3730 5.3650 5.2587 5.2123
 5.1374 4.9708 4.9300 4.9662 4.9061 4.7961 4.7516 4.7979 4.9234 4.8991
 4.7001 4.4782 4.2987 4.2587 4.2027 4.1079 4.1023 4.1240 4.1259 4.0726
 4.0261 4.0465 4.1127 4.1297 4.2003 4.3411 4.4080 4.3656 4.3607 4.4150
 4.4793 4.6317 4.7424 4.8276 5.0271 5.2722 5.4988 5.7650 6.0745 6.1898
 6.2374 6.4036 6.6912 7.1017 7.5214 7.5386 7.3728 7.4187 7.3938 7.2947
 7.3780 7.3709 7.1991 6.7884 6.4240 6.2533 5.9859 5.6119 5.3137 5.2090
 5.2235 5.3426 5.4652 5.4652 5.2761 5.0154 4.9130 4.8439 4.7186 4.7280
 4.7510 4.7097 4.7082 4.7020 4.5324 4.3266 4.2474 4.2990 4.2976 4.1824
 4.0580 4.0121 3.9809 3.9483 3.9459 3.9616 4.0005 4.1044 4.2065 4.3152
 4.4910 4.5237 4.5388 4.6206 4.6497 4.6170 4.5622 4.5766 4.6131 4.7162
 4.7798 4.6812 4.5193 4.4361 4.4285 4.4632 4.4463 4.4441 4.4778 4.4007
 4.3100 4.3468 4.4436 4.3743 4.2038 4.1033 4.0780 4.0667 4.1569 4.3070
 4.4360 4.5331 4.5208 4.5674 4.6978 4.8182 4.8832 4.7416 4.6288 4.6024
 4.5047 4.4711 4.5403 4.6105 4.6724 4.8045 4.8206 4.8017 4.8154 4.8375
 4.8319 4.6654 4.5078 4.4117 4.2499 4.1851 4.2474 4.3255 4.3853 4.5286
 4.6155 4.6521 4.7589 4.7409 4.5970 4.5730 4.5277 4.4076 4.3449 4.1768
 3.9658 3.8899 3.8643 3.8325 3.8596 3.7867 3.6847 3.7214 3.7325 3.6516
 3.6823 3.7624 3.7672 3.8113 3.9092 4.1726 4.5071 4.6859 4.7994 4.8075
 4.7170 4.6785 4.6140 4.4774 4.4226 4.4844 4.6024 4.6506 4.5345 4.3522
 4.2823 4.2651 4.2454 4.2334 4.2411 4.1200 4.0051 3.9885 4.0031 4.0418
 4.1004 4.1788 4.3348 4.3654 4.2889 4.3230 4.3869 4.3619 4.2541 4.1759
 4.0710 3.9349 3.9365 3.9605 3.8729 3.7213 3.5458 3.3907 3.3211 3.3176
 3.3090 3.3215 3.3644 3.4190 3.4942 3.5382 3.6159 3.7517 3.7638 3.8419
 4.0390 4.2192 4.4323 4.6183 4.7647 4.8938 4.9574 4.9156 4.8880 4.8765
 4.8676 4.9440 5.0714 5.1544 5.1321 5.2243 5.3406 5.1757 4.9117 4.7305
 4.6140 4.5637 4.6605 4.7944 4.8848 4.9134 4.8789 4.7810 4.6288 4.5695
 4.5522 4.5003 4.4172 4.2418 4.0307 3.8687 3.6916 3.6276 3.7351 3.9130
 4.0086 3.9152 3.8717 4.0596 4.2573 4.3204 4.2177 4.1584 4.2487 4.2372
 4.1687 4.1071 4.1453 4.3109 4.3795 4.3486 4.3989 4.5408 4.5950 4.6128
 4.6595 4.7097 4.8119 4.9276 5.1045 5.2790 5.1731 4.9182 4.7048 4.6681
 4.6377 4.6416 4.7241 4.6860 4.4863 4.2764 4.2023 4.2568 4.3972 4.4782
 4.4721 4.3661 4.1992 4.1356 4.1344 4.0545 3.9966 3.9530 3.8863 3.8486
 3.7614 3.6829 3.6698 3.6578 3.6195 3.6068 3.6848 3.7395 3.7223 3.7139
 3.7073 3.7109 3.7291 3.7219 3.7669 3.8518 3.9088 4.0532 4.3065 4.3830
 4.4237 4.8959 5.3759 5.5879 5.8402 5.9474 5.8117 5.5518 5.3485 5.3809
 5.5290 5.6282 5.6504 5.6387 5.5649 5.5156 5.4535 5.3269 5.1307 4.9682
 4.8297 4.6734 4.5600 4.5312 4.5753 4.5984 4.5792 4.4681 4.3276 4.2167
 4.1542 4.2539 4.4147 4.4625 4.3658 4.3351 4.2865 4.1947 4.1644 4.1583
 4.1359 3.9734 3.8606 3.8722 3.8948 3.8507 3.7824 3.7020 3.6158 3.5611
 3.5443 3.4531 3.2994 3.1968 3.1013 2.9803 2.9044 2.8619 2.8600 2.8873
 2.8622 2.8236 2.7753 2.7542 2.8208 2.8884 2.9340 2.8934 2.8629 2.9504
 3.0666 3.2359 3.3461 3.3953 3.4238 3.4985 3.5960 3.7533 4.0180 4.2016
 4.1402 4.0808 4.2049 4.4323 4.6145 4.6304 4.5738 4.4203 4.3545 4.3031
 4.1655 4.1043 4.0390 3.9809 3.9902 4.0729 4.1106 3.9754 3.8461 3.8299
 4.0293 4.2123 4.1806 4.1834 4.1876 4.1233 4.2084 4.2566 4.0406 3.8692
 3.7916 3.5284 3.3101 3.2943 3.4175 3.5168 3.5020 3.4259 3.3750 3.3474
 3.3630 3.4296 3.4551 3.4102 3.3488 3.3191 3.3012 3.3302 3.3968 3.3067
 3.2034 3.1689 3.2224 3.2710 3.1688 3.0343 2.9645 2.9324 2.9257 2.9123
 2.8725 2.9054 3.0405 3.1621 3.2406 3.2750 3.3092 3.3269 3.2634 3.2029
 3.1979 3.2948 3.4846 3.5777 3.5191 3.4442 3.3873 3.2899 3.2156 3.1970
 3.1539 3.1168 3.0860 3.0216 3.0415 3.1465 3.2053 3.1451 2.9865 2.8868
 2.9298 3.0167 3.1013 3.1432 3.1233 3.0576 3.0245 3.1359 3.2849 3.3392
 3.3614 3.4138 3.5270 3.5772 3.5004 3.4124 3.3860 3.3650 3.3265 3.3428
 3.3910 3.3620 3.2876 3.2001 3.1149 3.0862 3.1181 3.1305 3.1914 3.2781
 3.3711 3.3991 3.3024 3.2898 3.3387 3.2635 3.2100 3.2603 3.3187 3.4704
 3.6639 3.6117 3.5675 3.6872 3.7536 3.8162 4.1013 4.4760 4.5623 4.5249
 4.5859 4.9199 5.3285 5.4254 5.2404 4.9942 4.9655 5.0117 4.9326 4.7633
 4.6697 4.6192 4.4782 4.3672 4.4115 4.5634 4.5435 4.4381 4.5976 4.8866
 5.0225 4.8533 4.6354 4.6355 4.6914 4.5605 4.3851 4.3616 4.4366 4.3804
 4.2481 4.2204 4.2947 4.3133 4.2082 4.1333 3.9783 3.7444 3.5591 3.4547
 3.5604 3.6892 3.7556 3.7921 3.6884 3.4941 3.3713 3.4388 3.5793 3.6157
 3.5606 3.4940 3.4501 3.3491 3.1920 3.1482 3.3016 3.4530 3.4136 3.2304
 3.1553 3.2020 3.3044 3.2865 3.1652 3.0869 3.0585 3.0939 3.1474 3.1515
 3.1797 3.2053 3.1440 3.0735 3.0736 3.1339 3.2416 3.2746 3.2442 3.2260
 3.1681 3.0937 3.0534 3.1365 3.2932 3.3455 3.2309 3.0977 3.0250 2.9843
 2.9923 2.9999 3.0105 2.9844 3.0397 3.1092 3.0269 2.9718 3.0976 3.2179
 3.2389 3.2689 3.2472 3.1830 3.2409 3.2830 3.2713 3.3222 3.4020 3.4029
 3.4370 3.6452 3.9259 4.0486 3.9776 3.9961 4.0925 4.0950 4.0588 4.1137
 4.2492 4.3161 4.2355 4.1464 3.9839 3.8199 3.7155 3.5876 3.4697 3.4095
 3.4139 3.4066 3.4394 3.4985 3.4914 3.5389 3.5381 3.4228 3.3518 3.3042
 3.3100 3.3402 3.2973 3.1891 3.1626 3.2632 3.3789 3.4384 3.4131 3.4408
 3.6916 3.8811 3.8043 3.5763 3.4687 3.5073 3.4995 3.4314 3.3268 3.2597
 3.2676 3.2350 3.2273 3.1838 3.0594 2.9696 2.9492 2.9523 2.9034 2.8449
 2.7595 2.6934 2.6827 2.7624 2.8136 2.7772 2.7274 2.6898 2.7047 2.6740
